from CRC Handbook of Chemistry and Physics 79th ed.
Aluminium emission lines
relative Intensity, wavelength, charge
150,304.128,1
360,305.007,0
450,305.714,0
150,307.464,1
4500,308.2153,0
7200,309.271,0
1800,309.2839,0
150,342.892,1
150,344.364,0
900,349.223,3
800,350.846,3
450,358.656,1
360,358.707,1
290,358.745,1
870,360.163,2
22,365.106,1
11,365.11,1
150,365.498,1
290,365.5,1
450,390.068,1
4500,394.4006,0
9000,396.152,0
110,399.586,1
290,422.681,1
870,452.919,2
150,458.582,1
110,458.819,1
550,466.68,1
110,489.876,1
110,490.277,1
150,528.021,1
290,528.377,1
150,528.585,1
110,531.232,1
220,531.607,1
150,537.184,1
180,555.706,0
110,555.795,0
450,559.323,1
1200,569.66,2
1000,572.273,2
110,585.362,1
220,597.194,1
290,600.176,1
220,600.188,1
450,600.642,1
150,606.111,1
290,606.843,1
110,606.853,1
450,607.323,1
110,618.157,1
150,618.168,1
290,618.228,1
220,618.245,1
450,618.342,1
450,620.152,1
360,620.17,1
290,622.618,1
360,623.178,1
450,624.336,1
450,633.574,1
360,669.602,0
230,669.867,0
110,736.157,0
140,736.23,0
230,783.531,0
290,783.613,0
110,807.535,0
290,864.07,1
360,877.287,0
450,877.39,0
110,882.891,0
180,884.128,0
140,892.356,0
150,929.065,1
110,929.075,1
